wavelength,intensity
177.471,0.31
177.858,0.43
178.245,0.35
178.632,0.36
179.019,0
179.406,0.37
179.792,0.11
180.179,0.39
180.566,0.45
180.953,0.37
181.34,0.79
181.726,0
182.113,0
182.499,-0.74
182.886,0.74
183.273,0
183.659,1.12
184.045,0.15
184.432,0.3
184.818,0.37
185.205,0.37
185.591,0.34
185.977,0.35
186.363,0.33
186.75,0.29
187.136,0.28
187.522,0.28
187.908,0.26
188.294,0.27
188.68,0.28
189.066,0.27
189.452,0.25
189.838,0.24
190.224,0.24
190.609,0.25
190.995,0.26
191.381,0.25
191.767,0.24
192.152,0.24
192.538,0.24
192.923,0.24
193.309,0.24
193.694,0.26
194.08,0.27
194.465,0.27
194.851,0.27
195.236,0.26
195.621,0.27
196.007,0.28
196.392,0.29
196.777,0.28
197.162,0.27
197.547,0.27
197.933,0.26
198.318,0.27
198.703,0.27
199.088,0.28
199.473,0.27
199.857,0.27
200.242,0.26
200.627,0.26
201.012,0.27
201.397,0.27
201.781,0.28
202.166,0.27
202.551,0.26
202.935,0.27
203.32,0.26
203.704,0.26
204.089,0.25
204.473,0.24
204.858,0.24
205.242,0.23
205.626,0.24
206.011,0.23
206.395,0.23
206.779,0.21
207.163,0.21
207.548,0.22
207.932,0.22
208.316,0.23
208.7,0.24
209.084,0.26
209.468,0.26
209.852,0.26
210.235,0.26
210.619,0.27
211.003,0.29
211.387,0.3
211.771,0.29
212.154,0.29
212.538,0.29
212.921,0.29
213.305,0.28
213.689,0.27
214.072,0.29
214.456,0.29
214.839,0.31
215.222,0.32
215.606,0.31
215.989,0.32
216.372,0.33
216.755,0.34
217.139,0.35
217.522,0.36
217.905,0.37
218.288,0.36
218.671,0.36
219.054,0.35
219.437,0.33
219.82,0.34
220.203,0.35
220.586,0.37
220.968,0.38
221.351,0.39
221.734,0.41
222.117,0.43
222.499,0.42
222.882,0.42
223.264,0.43
223.647,0.45
224.029,0.45
224.412,0.45
224.794,0.45
225.177,0.45
225.559,0.44
225.941,0.44
226.324,0.42
226.706,0.45
227.088,0.46
227.47,0.48
227.852,0.49
228.234,0.5
228.616,0.52
228.998,0.51
229.38,0.52
229.762,0.53
230.144,0.56
230.526,0.58
230.908,0.58
231.289,0.6
231.671,0.6
232.053,0.6
232.435,0.61
232.816,0.59
233.198,0.62
233.579,0.62
233.961,0.61
234.342,0.62
234.724,0.62
235.105,0.63
235.486,0.63
235.868,0.65
236.249,0.66
236.63,0.66
237.011,0.68
237.392,0.69
237.773,0.7
238.154,0.74
238.536,0.73
238.917,0.75
239.297,0.73
239.678,0.73
240.059,0.73
240.44,0.74
240.821,0.75
241.202,0.73
241.582,0.73
241.963,0.72
242.344,0.71
242.724,0.72
243.105,0.72
243.485,0.73
243.866,0.72
244.246,0.72
244.627,0.72
245.007,0.73
245.387,0.76
245.768,0.75
246.148,0.76
246.528,0.76
246.908,0.76
247.288,0.78
247.668,0.78
248.048,0.81
248.428,0.82
248.808,0.81
249.188,0.81
249.568,0.8
249.948,0.82
250.328,0.83
250.708,0.85
251.087,0.84
251.467,0.85
251.847,0.84
252.226,0.85
252.606,0.85
252.985,0.86
253.365,0.85
253.744,0.85
254.124,0.84
254.503,0.86
254.882,0.84
255.262,0.84
255.641,0.83
256.02,0.84
256.399,0.83
256.779,0.84
257.158,0.84
257.537,0.84
257.916,0.85
258.295,0.84
258.674,0.83
259.053,0.84
259.431,0.84
259.81,0.84
260.189,0.83
260.568,0.83
260.946,0.84
261.325,0.85
261.704,0.87
262.082,0.87
262.461,0.89
262.839,0.89
263.218,0.89
263.596,0.9
263.975,0.92
264.353,0.94
264.731,0.95
265.11,0.93
265.488,0.91
265.866,0.9
266.244,0.9
266.622,0.91
267,0.91
267.378,0.92
267.756,0.92
268.134,0.93
268.512,0.94
268.89,0.94
269.268,0.96
269.646,0.96
270.024,0.97
270.401,0.97
270.779,0.97
271.157,0.99
271.534,1.01
271.912,1.02
272.289,1.02
272.667,1.02
273.044,1.03
273.422,1.03
273.799,1.06
274.176,1.06
274.554,1.09
274.931,1.09
275.308,1.11
275.685,1.11
276.062,1.11
276.439,1.13
276.816,1.14
277.193,1.16
277.57,1.18
277.947,1.2
278.324,1.23
278.701,1.24
279.078,1.27
279.454,1.26
279.831,1.27
280.208,1.29
280.584,1.31
280.961,1.3
281.338,1.3
281.714,1.31
282.091,1.32
282.467,1.33
282.843,1.32
283.22,1.33
283.596,1.36
283.972,1.38
284.349,1.38
284.725,1.38
285.101,1.39
285.477,1.39
285.853,1.38
286.229,1.4
286.605,1.39
286.981,1.41
287.357,1.4
287.733,1.4
288.109,1.41
288.485,1.4
288.86,1.42
289.236,1.43
289.612,1.44
289.987,1.45
290.363,1.44
290.738,1.46
291.114,1.46
291.489,1.48
291.865,1.48
292.24,1.5
292.616,1.53
292.991,1.52
293.366,1.54
293.741,1.54
294.117,1.56
294.492,1.59
294.867,1.57
295.242,1.59
295.617,1.57
295.992,1.58
296.367,1.57
296.742,1.56
297.117,1.56
297.491,1.55
297.866,1.54
298.241,1.53
298.616,1.52
298.99,1.52
299.365,1.51
299.74,1.52
300.114,1.5
300.489,1.51
300.863,1.51
301.237,1.52
301.612,1.52
301.986,1.52
302.36,1.53
302.735,1.51
303.109,1.51
303.483,1.5
303.857,1.49
304.231,1.5
304.605,1.49
304.979,1.48
305.353,1.46
305.727,1.46
306.101,1.45
306.475,1.45
306.849,1.45
307.223,1.44
307.596,1.43
307.97,1.43
308.344,1.42
308.717,1.42
309.091,1.42
309.464,1.41
309.838,1.4
310.211,1.41
310.585,1.41
310.958,1.41
311.331,1.4
311.705,1.4
312.078,1.4
312.451,1.4
312.824,1.39
313.197,1.39
313.57,1.39
313.943,1.39
314.316,1.38
314.689,1.38
315.062,1.38
315.435,1.38
315.808,1.37
316.181,1.37
316.553,1.37
316.926,1.36
317.299,1.36
317.671,1.35
318.044,1.35
318.417,1.35
318.789,1.35
319.161,1.34
319.534,1.33
319.906,1.33
320.279,1.33
320.651,1.33
321.023,1.33
321.395,1.34
321.767,1.34
322.14,1.33
322.512,1.33
322.884,1.33
323.256,1.33
323.628,1.33
324,1.33
324.371,1.33
324.743,1.33
325.115,1.33
325.487,1.32
325.859,1.32
326.23,1.32
326.602,1.32
326.973,1.32
327.345,1.32
327.717,1.32
328.088,1.33
328.459,1.33
328.831,1.32
329.202,1.33
329.573,1.32
329.945,1.32
330.316,1.32
330.687,1.31
331.058,1.31
331.429,1.31
331.8,1.31
332.171,1.31
332.542,1.3
332.913,1.3
333.284,1.29
333.655,1.28
334.026,1.27
334.397,1.27
334.767,1.27
335.138,1.27
335.509,1.26
335.879,1.25
336.25,1.24
336.62,1.24
336.991,1.23
337.361,1.23
337.732,1.23
338.102,1.22
338.472,1.22
338.842,1.21
339.213,1.21
339.583,1.21
339.953,1.2
340.323,1.19
340.693,1.19
341.063,1.18
341.433,1.17
341.803,1.16
342.173,1.15
342.543,1.14
342.913,1.13
343.282,1.13
343.652,1.12
344.022,1.11
344.391,1.1
344.761,1.09
345.13,1.08
345.5,1.08
345.869,1.07
346.239,1.06
346.608,1.05
346.978,1.04
347.347,1.03
347.716,1.02
348.085,1.02
348.455,1
348.824,1
349.193,0.99
349.562,0.98
349.931,0.97
350.3,0.96
350.669,0.95
351.038,0.95
351.406,0.93
351.775,0.92
352.144,0.91
352.513,0.91
352.881,0.9
353.25,0.89
353.619,0.88
353.987,0.87
354.356,0.86
354.724,0.86
355.092,0.85
355.461,0.84
355.829,0.83
356.197,0.83
356.566,0.82
356.934,0.81
357.302,0.8
357.67,0.79
358.038,0.78
358.406,0.78
358.774,0.77
359.142,0.76
359.51,0.75
359.878,0.75
360.246,0.74
360.614,0.73
360.981,0.73
361.349,0.72
361.717,0.71
362.084,0.71
362.452,0.7
362.819,0.7
363.187,0.69
363.554,0.68
363.922,0.68
364.289,0.67
364.656,0.67
365.024,0.66
365.391,0.66
365.758,0.65
366.125,0.64
366.492,0.64
366.859,0.63
367.227,0.63
367.593,0.62
367.96,0.62
368.327,0.62
368.694,0.61
369.061,0.61
369.428,0.6
369.794,0.6
370.161,0.6
370.528,0.59
370.894,0.59
371.261,0.59
371.627,0.58
371.994,0.58
372.36,0.58
372.727,0.57
373.093,0.57
373.459,0.57
373.826,0.56
374.192,0.56
374.558,0.56
374.924,0.55
375.29,0.55
375.656,0.55
376.022,0.55
376.388,0.54
376.754,0.54
377.12,0.54
377.486,0.54
377.852,0.53
378.217,0.53
378.583,0.53
378.949,0.53
379.314,0.53
379.68,0.53
380.045,0.52
380.411,0.52
380.776,0.52
381.142,0.52
381.507,0.52
381.872,0.52
382.238,0.52
382.603,0.52
382.968,0.52
383.333,0.51
383.698,0.51
384.063,0.51
384.428,0.51
384.793,0.51
385.158,0.51
385.523,0.51
385.888,0.51
386.253,0.51
386.618,0.51
386.982,0.51
387.347,0.51
387.712,0.51
388.076,0.51
388.441,0.51
388.805,0.51
389.17,0.51
389.534,0.51
389.898,0.51
390.263,0.51
390.627,0.51
390.991,0.51
391.356,0.51
391.72,0.51
392.084,0.51
392.448,0.51
392.812,0.51
393.176,0.51
393.54,0.51
393.904,0.51
394.268,0.51
394.631,0.52
394.995,0.52
395.359,0.52
395.723,0.52
396.086,0.52
396.45,0.52
396.813,0.52
397.177,0.52
397.54,0.52
397.904,0.52
398.267,0.52
398.63,0.53
398.994,0.53
399.357,0.53
399.72,0.53
400.083,0.53
400.446,0.53
400.809,0.53
401.173,0.54
401.535,0.54
401.898,0.54
402.261,0.54
402.624,0.54
402.987,0.55
403.35,0.55
403.712,0.55
404.075,0.55
404.438,0.55
404.8,0.56
405.163,0.56
405.525,0.56
405.888,0.56
406.25,0.56
406.613,0.57
406.975,0.57
407.337,0.57
407.7,0.57
408.062,0.57
408.424,0.57
408.786,0.58
409.148,0.58
409.51,0.58
409.872,0.58
410.234,0.58
410.596,0.59
410.958,0.59
411.32,0.59
411.681,0.59
412.043,0.59
412.405,0.6
412.766,0.6
413.128,0.6
413.49,0.6
413.851,0.6
414.213,0.61
414.574,0.61
414.935,0.61
415.297,0.61
415.658,0.61
416.019,0.62
416.38,0.62
416.742,0.62
417.103,0.62
417.464,0.62
417.825,0.63
418.186,0.63
418.547,0.63
418.908,0.64
419.268,0.64
419.629,0.64
419.99,0.64
420.351,0.64
420.711,0.65
421.072,0.65
421.433,0.65
421.793,0.65
422.154,0.66
422.514,0.66
422.874,0.66
423.235,0.67
423.595,0.67
423.955,0.67
424.316,0.68
424.676,0.68
425.036,0.68
425.396,0.69
425.756,0.69
426.116,0.69
426.476,0.7
426.836,0.7
427.196,0.7
427.556,0.7
427.915,0.71
428.275,0.71
428.635,0.72
428.995,0.72
429.354,0.72
429.714,0.72
430.073,0.73
430.433,0.73
430.792,0.73
431.152,0.73
431.511,0.74
431.87,0.74
432.229,0.74
432.589,0.74
432.948,0.74
433.307,0.74
433.666,0.75
434.025,0.75
434.384,0.75
434.743,0.75
435.102,0.76
435.461,0.76
435.82,0.76
436.178,0.76
436.537,0.77
436.896,0.77
437.254,0.77
437.613,0.78
437.972,0.78
438.33,0.78
438.689,0.79
439.047,0.79
439.405,0.79
439.764,0.79
440.122,0.8
440.48,0.8
440.838,0.8
441.196,0.8
441.555,0.81
441.913,0.81
442.271,0.81
442.629,0.81
442.987,0.82
443.344,0.82
443.702,0.82
444.06,0.82
444.418,0.82
444.776,0.82
445.133,0.83
445.491,0.83
445.848,0.83
446.206,0.83
446.563,0.84
446.921,0.84
447.278,0.84
447.636,0.84
447.993,0.85
448.35,0.85
448.707,0.85
449.064,0.85
449.422,0.86
449.779,0.86
450.136,0.86
450.493,0.86
450.85,0.86
451.206,0.87
451.563,0.87
451.92,0.87
452.277,0.87
452.634,0.88
452.99,0.88
453.347,0.88
453.704,0.88
454.06,0.89
454.417,0.89
454.773,0.89
455.129,0.89
455.486,0.89
455.842,0.9
456.198,0.9
456.555,0.9
456.911,0.9
457.267,0.9
457.623,0.9
457.979,0.9
458.335,0.9
458.691,0.91
459.047,0.91
459.403,0.91
459.759,0.91
460.114,0.91
460.47,0.91
460.826,0.91
461.181,0.92
461.537,0.92
461.892,0.92
462.248,0.92
462.603,0.92
462.959,0.92
463.314,0.92
463.67,0.92
464.025,0.92
464.38,0.92
464.735,0.92
465.09,0.92
465.445,0.92
465.801,0.92
466.156,0.92
466.51,0.93
466.865,0.93
467.22,0.93
467.575,0.93
467.93,0.93
468.285,0.93
468.639,0.93
468.994,0.93
469.349,0.93
469.703,0.93
470.058,0.93
470.412,0.93
470.766,0.93
471.121,0.93
471.475,0.93
471.829,0.93
472.184,0.93
472.538,0.93
472.892,0.93
473.246,0.93
473.6,0.93
473.954,0.93
474.308,0.94
474.662,0.94
475.016,0.93
475.37,0.94
475.723,0.94
476.077,0.94
476.431,0.94
476.785,0.94
477.138,0.94
477.492,0.94
477.845,0.95
478.199,0.95
478.552,0.95
478.905,0.95
479.259,0.95
479.612,0.95
479.965,0.95
480.318,0.96
480.672,0.96
481.025,0.96
481.378,0.96
481.731,0.96
482.084,0.96
482.437,0.96
482.789,0.96
483.142,0.97
483.495,0.97
483.848,0.97
484.2,0.97
484.553,0.97
484.906,0.97
485.258,0.97
485.611,0.97
485.963,0.97
486.316,0.97
486.668,0.98
487.02,0.98
487.373,0.98
487.725,0.97
488.077,0.98
488.429,0.98
488.781,0.98
489.133,0.98
489.485,0.97
489.837,0.98
490.189,0.98
490.541,0.98
490.893,0.98
491.245,0.98
491.596,0.98
491.948,0.98
492.3,0.97
492.651,0.98
493.003,0.98
493.354,0.98
493.706,0.97
494.057,0.97
494.408,0.97
494.76,0.97
495.111,0.97
495.462,0.97
495.813,0.97
496.164,0.97
496.515,0.97
496.867,0.97
497.217,0.97
497.568,0.97
497.919,0.97
498.27,0.96
498.621,0.96
498.972,0.96
499.322,0.96
499.673,0.96
500.024,0.96
500.374,0.96
500.725,0.95
501.075,0.95
501.426,0.95
501.776,0.95
502.126,0.95
502.477,0.95
502.827,0.95
503.177,0.94
503.527,0.94
503.877,0.94
504.227,0.94
504.577,0.94
504.927,0.94
505.277,0.94
505.627,0.94
505.977,0.94
506.327,0.94
506.677,0.94
507.026,0.94
507.376,0.94
507.725,0.93
508.075,0.93
508.424,0.93
508.774,0.93
509.123,0.93
509.473,0.93
509.822,0.93
510.171,0.93
510.521,0.93
510.87,0.93
511.219,0.93
511.568,0.93
511.917,0.92
512.266,0.92
512.615,0.92
512.964,0.92
513.313,0.92
513.661,0.91
514.01,0.91
514.359,0.91
514.708,0.91
515.056,0.91
515.405,0.91
515.753,0.9
516.102,0.9
516.45,0.9
516.799,0.9
517.147,0.9
517.495,0.9
517.843,0.9
518.192,0.9
518.54,0.89
518.888,0.89
519.236,0.89
519.584,0.89
519.932,0.89
520.28,0.89
520.628,0.88
520.975,0.88
521.323,0.88
521.671,0.88
522.019,0.88
522.366,0.88
522.714,0.87
523.061,0.87
523.409,0.87
523.756,0.87
524.104,0.87
524.451,0.86
524.798,0.86
525.146,0.86
525.493,0.86
525.84,0.85
526.187,0.85
526.534,0.85
526.881,0.84
527.228,0.84
527.575,0.84
527.922,0.84
528.269,0.83
528.616,0.83
528.962,0.83
529.309,0.83
529.656,0.82
530.002,0.82
530.349,0.82
530.695,0.81
531.042,0.81
531.388,0.81
531.735,0.8
532.081,0.8
532.427,0.8
532.773,0.79
533.12,0.79
533.466,0.78
533.812,0.78
534.158,0.78
534.504,0.77
534.85,0.77
535.196,0.77
535.541,0.76
535.887,0.76
536.233,0.76
536.579,0.75
536.924,0.75
537.27,0.75
537.615,0.74
537.961,0.74
538.306,0.73
538.652,0.73
538.997,0.73
539.343,0.72
539.688,0.72
540.033,0.71
540.378,0.71
540.723,0.71
541.068,0.7
541.414,0.7
541.758,0.69
542.103,0.69
542.448,0.69
542.793,0.68
543.138,0.68
543.483,0.67
543.827,0.67
544.172,0.66
544.517,0.66
544.861,0.65
545.206,0.65
545.55,0.64
545.895,0.64
546.239,0.63
546.583,0.63
546.928,0.62
547.272,0.62
547.616,0.61
547.96,0.61
548.304,0.61
548.648,0.6
548.992,0.6
549.336,0.59
549.68,0.59
550.024,0.59
550.368,0.58
550.712,0.58
551.055,0.57
551.399,0.57
551.743,0.56
552.086,0.55
552.43,0.55
552.773,0.54
553.116,0.54
553.46,0.53
553.803,0.53
554.146,0.52
554.49,0.52
554.833,0.51
555.176,0.51
555.519,0.51
555.862,0.5
556.205,0.5
556.548,0.49
556.891,0.49
557.234,0.48
557.577,0.48
557.919,0.47
558.262,0.47
558.605,0.46
558.947,0.46
559.29,0.45
559.632,0.45
559.975,0.44
560.317,0.44
560.66,0.43
561.002,0.43
561.344,0.43
561.686,0.42
562.029,0.42
562.371,0.41
562.713,0.41
563.055,0.4
563.397,0.4
563.739,0.4
564.081,0.39
564.422,0.39
564.764,0.38
565.106,0.38
565.448,0.38
565.789,0.37
566.131,0.37
566.472,0.36
566.814,0.36
567.155,0.35
567.497,0.35
567.838,0.34
568.179,0.34
568.521,0.34
568.862,0.33
569.203,0.33
569.544,0.32
569.885,0.32
570.226,0.31
570.567,0.31
570.908,0.31
571.249,0.31
571.59,0.3
571.931,0.3
572.271,0.3
572.612,0.29
572.953,0.29
573.293,0.29
573.634,0.28
573.974,0.28
574.315,0.28
574.655,0.27
574.995,0.27
575.336,0.27
575.676,0.26
576.016,0.26
576.356,0.26
576.696,0.25
577.036,0.25
577.376,0.25
577.716,0.25
578.056,0.24
578.396,0.24
578.736,0.24
579.076,0.24
579.415,0.23
579.755,0.23
580.095,0.23
580.434,0.22
580.774,0.22
581.113,0.22
581.453,0.21
581.792,0.21
582.131,0.21
582.471,0.21
582.81,0.21
583.149,0.2
583.488,0.2
583.827,0.2
584.166,0.2
584.505,0.19
584.844,0.19
585.183,0.19
585.522,0.19
585.861,0.18
586.199,0.18
586.538,0.18
586.877,0.18
587.215,0.18
587.554,0.17
587.892,0.17
588.231,0.17
588.569,0.17
588.907,0.16
589.246,0.16
589.584,0.16
589.922,0.16
590.26,0.16
590.598,0.15
590.936,0.15
591.274,0.15
591.612,0.15
591.95,0.14
592.288,0.14
592.626,0.14
592.964,0.14
593.301,0.14
593.639,0.13
593.977,0.13
594.314,0.13
594.652,0.13
594.989,0.13
595.327,0.13
595.664,0.12
596.001,0.12
596.339,0.12
596.676,0.12
597.013,0.12
597.35,0.11
597.687,0.11
598.024,0.11
598.361,0.11
598.698,0.11
599.035,0.11
599.372,0.1
599.708,0.1
600.045,0.1
600.382,0.1
600.718,0.1
601.055,0.1
601.392,0.1
601.728,0.1
602.064,0.1
602.401,0.09
602.737,0.09
603.073,0.09
603.41,0.09
603.746,0.09
604.082,0.09
604.418,0.09
604.754,0.08
605.09,0.08
605.426,0.08
605.762,0.08
606.098,0.08
606.434,0.08
606.769,0.08
607.105,0.08
607.441,0.07
607.776,0.07
608.112,0.07
608.447,0.07
608.783,0.07
609.118,0.07
609.453,0.07
609.789,0.06
610.124,0.06
610.459,0.06
610.794,0.06
611.129,0.06
611.464,0.06
611.799,0.06
612.134,0.06
612.469,0.06
612.804,0.05
613.139,0.05
613.474,0.05
613.808,0.05
614.143,0.05
614.478,0.05
614.812,0.05
615.147,0.05
615.481,0.05
615.816,0.05
616.15,0.05
616.484,0.05
616.818,0.05
617.153,0.05
617.487,0.05
617.821,0.04
618.155,0.04
618.489,0.04
618.823,0.04
619.157,0.04
619.491,0.04
619.824,0.04
620.158,0.04
620.492,0.04
620.826,0.04
621.159,0.04
621.493,0.04
621.826,0.04
622.16,0.03
622.493,0.03
622.826,0.03
623.16,0.03
623.493,0.03
623.826,0.03
624.159,0.03
624.492,0.03
624.825,0.03
625.158,0.03
625.491,0.03
625.824,0.03
626.157,0.03
626.49,0.03
626.823,0.03
627.155,0.03
627.488,0.03
627.821,0.03
628.153,0.03
628.486,0.03
628.818,0.02
629.151,0.02
629.483,0.03
629.815,0.03
630.148,0.03
630.48,0.03
630.812,0.03
631.144,0.03
631.476,0.02
631.808,0.03
632.14,0.03
632.472,0.03
632.804,0.03
633.136,0.02
633.467,0.02
633.799,0.03
634.131,0.02
634.462,0.03
634.794,0.03
635.125,0.03
635.457,0.03
635.788,0.03
636.12,0.03
636.451,0.03
636.782,0.03
637.113,0.03
637.444,0.03
637.776,0.03
638.107,0.03
638.438,0.03
638.769,0.03
639.099,0.03
639.43,0.03
639.761,0.03
640.092,0.03
640.422,0.03
640.753,0.03
641.084,0.03
641.414,0.03
641.745,0.03
642.075,0.03
642.406,0.03
642.736,0.03
643.066,0.03
643.396,0.03
643.727,0.03
644.057,0.03
644.387,0.03
644.717,0.03
645.047,0.03
645.377,0.03
645.707,0.03
646.037,0.03
646.366,0.03
646.696,0.03
647.026,0.03
647.355,0.03
647.685,0.03
648.015,0.03
648.344,0.03
648.673,0.03
649.003,0.03
649.332,0.03
649.661,0.03
649.991,0.03
650.32,0.03
650.649,0.03
650.978,0.04
651.307,0.03
651.636,0.04
651.965,0.04
652.294,0.04
652.623,0.04
652.951,0.04
653.28,0.04
653.609,0.04
653.937,0.04
654.266,0.03
654.594,0.03
654.923,0.03
655.251,0.03
655.58,0.03
655.908,0.03
656.236,0.03
656.565,0.03
656.893,0.03
657.221,0.03
657.549,0.03
657.877,0.03
658.205,0.03
658.533,0.04
658.861,0.04
659.188,0.04
659.516,0.04
659.844,0.04
660.171,0.04
660.499,0.04
660.827,0.04
661.154,0.04
661.482,0.04
661.809,0.04
662.136,0.04
662.464,0.04
662.791,0.04
663.118,0.04
663.445,0.04
663.772,0.04
664.099,0.04
664.426,0.04
664.753,0.04
665.08,0.04
665.407,0.04
665.734,0.04
666.06,0.04
666.387,0.04
666.714,0.04
667.04,0.04
667.367,0.04
667.693,0.04
668.02,0.04
668.346,0.04
668.672,0.04
668.999,0.04
669.325,0.04
669.651,0.04
669.977,0.04
670.303,0.04
670.629,0.04
670.955,0.04
671.281,0.04
671.607,0.04
671.933,0.04
672.258,0.04
672.584,0.04
672.91,0.04
673.235,0.04
673.561,0.04
673.886,0.04
674.212,0.04
674.537,0.04
674.863,0.04
675.188,0.04
675.513,0.04
675.838,0.04
676.163,0.04
676.489,0.04
676.814,0.04
677.139,0.04
677.464,0.04
677.788,0.04
678.113,0.04
678.438,0.04
678.763,0.04
679.087,0.04
679.412,0.04
679.737,0.04
680.061,0.04
680.386,0.04
680.71,0.05
681.034,0.05
681.359,0.05
681.683,0.05
682.007,0.05
682.331,0.05
682.655,0.05
682.979,0.04
683.303,0.04
683.627,0.04
683.951,0.04
684.275,0.04
684.599,0.04
684.923,0.04
685.246,0.04
685.57,0.04
685.893,0.04
686.217,0.04
686.541,0.04
686.864,0.04
687.187,0.04
687.511,0.04
687.834,0.04
688.157,0.04
688.48,0.04
688.803,0.04
689.126,0.04
689.449,0.04
689.772,0.04
690.095,0.04
690.418,0.04
690.741,0.04
691.064,0.04
691.386,0.04
691.709,0.04
692.032,0.04
692.354,0.04
692.677,0.04
692.999,0.04
693.322,0.04
693.644,0.04
693.966,0.04
694.288,0.04
694.611,0.04
694.933,0.04
695.255,0.04
695.577,0.04
695.899,0.04
696.221,0.04
696.543,0.04
696.864,0.04
697.186,0.04
697.508,0.04
697.83,0.04
698.151,0.04
698.473,0.04
698.794,0.04
699.116,0.04
699.437,0.04
699.758,0.04
700.08,0.04
700.401,0.04
700.722,0.04
701.043,0.04
701.364,0.04
701.685,0.04
702.006,0.04
702.327,0.04
702.648,0.04
702.969,0.04
703.29,0.04
703.61,0.04
703.931,0.04
704.252,0.04
704.572,0.04
704.893,0.04
705.213,0.04
705.534,0.04
705.854,0.04
706.174,0.04
706.494,0.04
706.815,0.04
707.135,0.04
707.455,0.04
707.775,0.04
708.095,0.04
708.415,0.04
708.735,0.04
709.054,0.04
709.374,0.04
709.694,0.04
710.014,0.04
710.333,0.04
710.653,0.04
710.972,0.04
711.292,0.04
711.611,0.04
711.931,0.04
712.25,0.04
712.569,0.04
712.888,0.04
713.207,0.03
713.526,0.04
713.846,0.03
714.164,0.03
714.483,0.03
714.802,0.03
715.121,0.03
715.44,0.04
715.759,0.04
716.077,0.04
716.396,0.04
716.714,0.04
717.033,0.04
717.351,0.04
717.67,0.04
717.988,0.04
718.306,0.04
718.625,0.04
718.943,0.04
719.261,0.04
719.579,0.04
719.897,0.04
720.215,0.04
720.533,0.04
720.851,0.04
721.169,0.04
721.486,0.04
721.804,0.04
722.122,0.04
722.439,0.04
722.757,0.04
723.074,0.04
723.392,0.04
723.709,0.03
724.027,0.03
724.344,0.03
724.661,0.03
724.978,0.03
725.295,0.03
725.612,0.03
725.929,0.03
726.246,0.03
726.563,0.03
726.88,0.03
727.197,0.03
727.514,0.03
727.83,0.03
728.147,0.03
728.464,0.03
728.78,0.04
729.097,0.03
729.413,0.03
729.73,0.03
730.046,0.03
730.362,0.03
730.678,0.03
730.995,0.03
731.311,0.03
731.627,0.03
731.943,0.03
732.259,0.03
732.575,0.03
732.89,0.03
733.206,0.03
733.522,0.03
733.838,0.03
734.153,0.03
734.469,0.03
734.784,0.03
735.1,0.03
735.415,0.03
735.731,0.03
736.046,0.03
736.361,0.03
736.676,0.03
736.992,0.03
737.307,0.03
737.622,0.03
737.937,0.03
738.252,0.03
738.567,0.03
738.881,0.03
739.196,0.03
739.511,0.03
739.826,0.03
740.14,0.03
740.455,0.03
740.769,0.03
741.084,0.03
741.398,0.03
741.712,0.03
742.027,0.03
742.341,0.03
742.655,0.03
742.969,0.03
743.283,0.04
743.597,0.04
743.911,0.04
744.225,0.04
744.539,0.03
744.853,0.03
745.167,0.03
745.48,0.03
745.794,0.03
746.108,0.03
746.421,0.03
746.735,0.03
747.048,0.03
747.362,0.03
747.675,0.03
747.988,0.03
748.301,0.03
748.615,0.03
748.928,0.03
749.241,0.03
749.554,0.03
749.867,0.03
750.18,0.03
750.492,0.03
750.805,0.03
751.118,0.03
751.431,0.03
751.743,0.03
752.056,0.03
752.368,0.03
752.681,0.03
752.993,0.03
753.306,0.03
753.618,0.03
753.93,0.03
754.242,0.03
754.554,0.03
754.867,0.03
755.179,0.03
755.491,0.03
755.802,0.03
756.114,0.03
756.426,0.03
756.738,0.03
757.05,0.03
757.361,0.03
757.673,0.03
757.984,0.03
758.296,0.03
758.607,0.03
758.919,0.03
759.23,0.03
759.541,0.03
759.853,0.03
760.164,0.03
760.475,0.03
760.786,0.03
761.097,0.03
761.408,0.03
761.719,0.03
762.03,0.03
762.34,0.03
762.651,0.03
762.962,0.03
763.272,0.03
763.583,0.03
763.893,0.03
764.204,0.03
764.514,0.03
764.825,0.03
765.135,0.03
765.445,0.03
765.755,0.03
766.066,0.03
766.376,0.03
766.686,0.03
766.996,0.03
767.306,0.03
767.615,0.03
767.925,0.03
768.235,0.03
768.545,0.03
768.854,0.03
769.164,0.03
769.473,0.03
769.783,0.03
770.092,0.03
770.402,0.03
770.711,0.03
771.02,0.03
771.329,0.03
771.639,0.03
771.948,0.03
772.257,0.03
772.566,0.03
772.875,0.03
773.184,0.03
773.492,0.03
773.801,0.03
774.11,0.03
774.418,0.03
774.727,0.03
775.036,0.03
775.344,0.03
775.653,0.03
775.961,0.03
776.269,0.03
776.578,0.03
776.886,0.03
777.194,0.03
777.502,0.03
777.81,0.03
778.118,0.03
778.426,0.03
778.734,0.03
779.042,0.03
779.35,0.03
779.657,0.03
779.965,0.03
780.273,0.03
780.58,0.03
780.888,0.03
781.195,0.03
781.502,0.03
781.81,0.03
782.117,0.03
782.424,0.03
782.732,0.03
783.039,0.03
783.346,0.03
783.653,0.03
783.96,0.03
784.267,0.03
784.573,0.04
784.88,0.03
785.187,0.03
785.494,0.04
785.8,0.04
786.107,0.04
786.413,0.04
786.72,0.04
787.026,0.04
787.333,0.04
787.639,0.04
787.945,0.04
788.251,0.04
788.557,0.04
788.863,0.04
789.169,0.04
789.475,0.04
789.781,0.04
790.087,0.04
790.393,0.04
790.699,0.04
791.004,0.04
791.31,0.04
791.616,0.04
791.921,0.04
792.227,0.04
792.532,0.04
792.837,0.04
793.143,0.04
793.448,0.04
793.753,0.04
794.058,0.04
794.363,0.04
794.668,0.04
794.973,0.04
795.278,0.03
795.583,0.04
795.888,0.04
796.193,0.04
796.497,0.04
796.802,0.03
797.107,0.03
797.411,0.04
797.716,0.04
798.02,0.04
798.324,0.03
798.629,0.04
798.933,0.04
799.237,0.03
799.541,0.03
799.845,0.03
800.149,0.03
800.453,0.03
800.757,0.03
801.061,0.03
801.365,0.03
801.669,0.03
801.972,0.03
802.276,0.03
802.58,0.04
802.883,0.04
803.187,0.04
803.49,0.04
803.793,0.04
804.097,0.04
804.4,0.04
804.703,0.04
805.006,0.04
805.309,0.04
805.612,0.04
805.915,0.04
806.218,0.04
806.521,0.04
806.824,0.04
807.127,0.04
807.429,0.04
807.732,0.04
808.034,0.04
808.337,0.04
808.639,0.04
808.942,0.04
809.244,0.04
809.546,0.04
809.849,0.04
810.151,0.04
810.453,0.04
810.755,0.04
811.057,0.04
811.359,0.04
811.661,0.04
811.963,0.04
812.265,0.04
812.566,0.04
812.868,0.04
813.17,0.04
813.471,0.04
813.773,0.04
814.074,0.04
814.376,0.04
814.677,0.04
814.978,0.04
815.279,0.04
815.581,0.04
815.882,0.04
816.183,0.04
816.484,0.04
816.785,0.04
817.086,0.04
817.386,0.04
817.687,0.04
817.988,0.04
818.289,0.04
818.589,0.04
818.89,0.04
819.19,0.04
819.491,0.04
819.791,0.04
820.092,0.04
820.392,0.03
820.692,0.03
820.992,0.03
821.292,0.03
821.592,0.03
821.892,0.03
822.192,0.03
822.492,0.03
822.792,0.03
823.092,0.03
823.391,0.04
823.691,0.04
823.991,0.04
824.29,0.04
824.59,0.04
824.889,0.03
825.189,0.03
825.488,0.03
825.787,0.03
826.086,0.03
826.385,0.03
826.685,0.03
826.984,0.03
827.283,0.03
827.582,0.03
827.88,0.03
828.179,0.03
828.478,0.02
828.777,0.02
829.075,0.02
829.374,0.03
829.672,0.03
829.971,0.03
830.269,0.03
830.568,0.03
830.866,0.03
831.164,0.03
831.462,0.03
831.761,0.04
832.059,0.04
832.357,0.04
832.655,0.04
832.952,0.04
833.25,0.04
833.548,0.04
833.846,0.04
834.144,0.03
834.441,0.03
834.739,0.03
835.036,0.03
835.334,0.02
835.631,0.02
835.928,0.02
836.226,0.02
836.523,0.02
836.82,0.02
837.117,0.02
837.414,0.02
837.711,0.02
838.008,0.03
838.305,0.03
838.602,0.03
838.899,0.03
839.195,0.03
839.492,0.03
839.789,0.03
840.085,0.03
840.382,0.03
840.678,0.03
840.974,0.03
841.271,0.02
841.567,0.02
841.863,0.02
842.159,0.03
842.455,0.03
842.751,0.03
843.047,0.04
843.343,0.04
843.639,0.04
843.935,0.04
844.231,0.04
844.526,0.04
844.822,0.04
845.118,0.05
845.413,0.04
845.709,0.04
846.004,0.04
846.299,0.04
846.595,0.04
846.89,0.04
847.185,0.04
847.48,0.05
847.775,0.05
848.07,0.04
848.365,0.05
848.66,0.05
848.955,0.06
849.25,0.06
849.544,0.06
849.839,0.06
850.134,0.06
850.428,0.06
850.723,0.05
851.017,0.05
851.311,0.06
851.606,0.04
851.9,0.04
852.194,0.04
852.488,0.04
852.782,0.04
853.076,0.03
853.37,0.04
853.664,0.04
853.958,0.04
854.252,0.04
854.546,0.05
854.839,0.05
855.133,0.05
855.426,0.04
855.72,0.04
856.013,0.05
856.307,0.05
856.6,0.05
856.893,0.06
857.187,0.05
857.48,0.05
857.773,0.04
858.066,0.04
858.359,0.04
858.652,0.05
858.945,0.06
859.238,0.05
859.53,0.05
859.823,0.04
860.116,0.04
860.408,0.05
860.701,0.04
860.993,0.06
861.286,0.07
861.578,0.06
861.87,0.05
862.163,0.03
862.455,0.03
862.747,0.01
863.039,0.03
863.331,0.03
863.623,0.03
863.915,0.04
864.207,0.03
864.498,0.03
864.79,0.02
865.082,0.04
865.373,0.04
865.665,0.04
865.956,0.05
866.248,0.03
866.539,0.04
866.831,0.03
867.122,0.02
867.413,0.01
867.704,0.01
867.995,0.02
868.286,0.02
868.577,0.05
868.868,0.06
869.159,0.04
869.45,0.04
869.741,0.04
870.031,0.05
870.322,0.07
870.612,0.11
870.903,0.14
871.193,0.1
871.484,0.09
871.774,0.07
872.064,0.05
872.355,0.07
872.645,0.08
872.935,0.06
873.225,0.06
873.515,0.06
873.805,0.05
874.095,0.02
874.384,0.03
874.674,0.05
874.964,0.04
875.253,0.05
875.543,0.06
875.833,0.08
876.122,0.08
876.411,0.08
876.701,0.08
876.99,0.04
